Power [kW]
73.27
82.77
63.80
94.33
111.23
80.70
168.92
158.26
234.72
166.68
286.38
364.43
405.02
400.85
391.45
380.83
399.97
326.63
320.57
270.22
248.56
212.63
34.59
159.85
97.96
69.04
73.22
83.05
85.15
88.24
209.74
201.20
414.54
518.12
493.71
571.15
520.58
512.33
502.85
494.40
515.04
535.85
501.79
461.98
388.61
213.33
23.85
175.54
81.55
82.34
90.81
71.20
144.24
148.24
254.11
227.54
419.87
532.10
515.16
593.01
546.23
539.45
529.47
520.79
541.01
560.68
522.24
466.28
390.34
214.20
19.36
154.90
100.36
85.64
58.10
85.41
101.14
75.18
209.38
201.61
414.71
517.83
493.90
571.21
519.97
512.21
502.71
494.11
514.62
535.16
501.24
460.72
387.44
212.45
46.14
176.50
97.78
58.71
83.64
82.44
74.86
98.64
209.79
201.16
414.51
518.17
493.62
571.05
520.25
511.76
502.24
493.65
514.19
534.65
500.89
460.15
386.81
212.10
56.50
177.53
97.47
60.15
81.67
82.38
116.27
137.75
251.26
224.12
414.80
518.38
493.69
571.14
520.53
512.14
502.58
494.06
514.64
535.19
501.28
444.38
372.13
200.70
40.13
175.34
93.43
54.70
77.12
78.21
71.19
92.50
163.88
155.53
324.53
400.32
494.94
571.94
522.25
517.59
511.47
504.91
527.26
549.21
468.77
335.07
308.60
179.08
17.73
180.94
108.21
71.12
100.43
99.37
92.10
117.38
179.13
172.11
248.32
180.09
294.07
367.25
402.50
396.70
386.99
378.19
398.51
325.68
319.92
268.70
247.26
212.00
53.94
172.04
90.88
63.38
82.78
76.68
79.78
97.86
209.73
201.05
414.45
518.17
493.48
571.01
520.30
511.75
502.25
493.72
514.27
534.75
500.93
460.23
386.81
212.06
59.53
177.41
93.10
63.33
81.09
78.29
119.55
137.25
251.08
223.81
414.64
518.17
493.57
571.07
520.51
512.00
502.42
493.93
514.54
535.02
501.13
444.10
371.79
200.45
54.23
177.30
99.30
58.82
82.17
84.53
75.48
97.71
210.21
201.85
415.01
519.24
494.76
571.71
521.93
517.25
511.13
505.66
528.99
551.07
513.82
474.75
400.25
224.42
33.88
184.88
90.01
90.23
93.70
70.02
96.81
101.43
210.76
202.64
415.46
519.43
495.49
572.29
521.86
514.71
504.92
495.85
515.70
536.02
501.65
460.88
387.84
212.64
46.56
176.72
96.27
61.04
84.47
81.41
116.84
140.35
251.65
224.79
415.21
519.14
494.95
572.99
526.16
522.90
517.92
513.85
527.67
559.65
524.73
475.07
405.59
235.46
53.05
143.51
72.28
60.16
62.20
60.67
64.92
84.18
176.83
164.58
328.69
403.58
500.87
576.85
524.05
516.87
506.74
497.66
507.26
537.72
457.72
321.34
295.83
166.49
17.86
163.70
69.85
71.64
79.35
59.09
88.25
94.48
163.70
155.28
233.71
164.68
284.61
363.02
402.61
395.70
385.99
377.34
387.49
325.26
319.91
269.40
247.45
212.11
35.00
171.62
92.70
54.20
76.76
77.77
70.89
92.42
163.81
155.71
235.49
169.83
294.17
373.60
416.31
409.63
404.98
399.11
409.67
346.11
336.85
287.53
263.23
225.32
35.77
177.93
83.56
90.56
93.67
65.01
138.00
140.99
251.49
224.35
414.81
517.53
493.63
571.06
519.55
511.60
502.09
493.46
503.63
534.24
500.69
443.12
370.93
200.02
61.00
177.61
74.17
80.56
82.10
58.45
96.44
97.26
209.50
200.56
414.26
517.68
492.93
570.68
519.97
511.04
501.59
493.03
503.32
534.11
500.66
459.88
386.35
211.90
61.99
179.16
72.40
80.35
83.62
56.70
96.42
98.84
209.52
200.58
414.27
517.75
492.98
570.72
520.04
511.19
501.72
493.19
503.48
534.30
500.74
460.27
386.76
212.16
48.71
176.83
99.58
58.64
81.89
84.27
115.06
138.52
251.50
224.61
415.10
519.03
494.38
571.56
521.50
513.63
503.97
495.78
506.33
536.67
501.98
445.17
373.01
201.12
44.66
177.48
92.47
55.49
77.06
77.68
72.01
93.00
164.14
156.08
324.85
400.65
495.39
573.76
525.96
519.77
512.84
506.49
518.43
549.54
467.21
331.16
302.61
170.27
39.12
152.44
87.28
79.76
59.37
72.04
95.75
74.41
162.60
154.99
233.51
163.93
283.97
362.69
401.78
394.97
385.49
376.86
387.06
324.78
319.63
269.11
247.04
211.89
56.94
172.62
69.53
81.59
83.39
54.82
97.41
98.51
209.49
200.47
414.23
517.57
492.88
570.65
519.95
511.05
501.60
493.06
503.34
534.13
500.69
460.08
386.53
211.96
59.76
177.35
93.23
63.36
81.31
78.48
119.78
137.52
251.16
223.97
414.73
518.40
493.71
571.14
520.62
512.23
502.74
494.34
504.79
535.67
501.54
444.88
372.56
200.86
50.47
177.00
100.20
59.68
82.96
84.85
75.46
97.45
210.22
201.78
414.91
518.72
494.27
571.39
520.66
513.05
504.01
495.46
505.51
536.25
501.93
462.00
389.85
216.82
25.62
182.70
90.12
89.74
99.75
81.96
113.22
119.63
223.90
217.63
430.51
540.47
517.93
596.69
556.86
563.32
563.89
562.05
568.94
610.50
568.91
536.67
461.65
278.37
84.26
170.23
106.22
87.98
89.31
90.56
150.68
150.91
338.16
321.90
500.77
614.02
597.22
657.29
616.24
596.06
562.54
540.06
534.04
570.58
529.86
474.55
400.42
223.77
32.87
121.74
81.16
78.65
88.50
91.65
88.69
101.52
171.91
159.89
325.92
400.89
496.03
572.56
520.98
513.81
504.18
495.52
495.15
535.85
456.29
320.14
294.87
166.15
34.82
155.88
94.09
65.79
65.48
80.25
82.43
81.11
164.15
156.13
234.29
166.28
286.68
364.94
407.84
404.92
397.24
389.00
389.92
337.92
329.77
279.12
256.15
219.53
16.00
161.03
82.33
82.25
73.53
71.18
99.52
88.53
210.14
191.55
414.85
518.26
494.01
571.25
520.26
512.32
502.79
494.26
494.35
535.46
501.43
461.06
387.65
212.51
36.43
166.76
99.56
65.60
75.50
84.97
121.55
131.30
251.25
214.01
414.84
518.23
493.74
571.15
520.34
512.10
502.62
494.14
494.27
535.43
501.45
444.78
372.51
200.92
41.45
147.79
97.11
84.72
60.41
80.15
100.42
75.34
208.34
190.81
414.47
517.93
493.53
571.07
520.37
512.14
502.64
494.11
494.13
535.17
501.21
460.72
387.40
212.47
46.85
177.11
97.92
60.46
82.06
82.49
76.62
97.19
209.90
191.09
414.70
518.66
494.21
571.40
521.02
512.88
503.24
494.71
494.72
535.71
501.49
460.97
387.76
212.65
44.31
169.84
98.84
64.15
78.96
83.58
120.15
135.11
251.62
214.66
415.28
519.13
494.67
571.64
521.33
513.81
504.81
496.60
496.38
536.92
502.39
445.82
373.98
202.29
18.58
167.75
68.65
76.27
73.89
61.29
95.42
89.84
164.72
146.42
325.32
400.96
495.71
572.37
522.02
514.59
504.92
496.39
496.35
537.29
457.39
321.34
295.80
167.25
35.56
154.16
101.56
83.95
71.96
90.59
102.17
88.78
171.68
154.45
242.00
174.80
293.31
368.39
404.95
396.95
386.99
378.17
377.96
325.89
320.21
269.43
247.82
212.23
53.99
171.42
96.26
59.56
80.72
81.55
75.62
95.52
209.57
190.45
414.32
517.71
493.20
570.88
520.19
511.58
502.09
493.57
493.60
534.62
500.86
460.17
386.68
212.00
58.99
177.41
93.19
63.33
81.13
78.27
119.54
137.22
251.03
213.44
414.58
518.06
493.46
571.05
520.60
512.17
502.68
494.21
494.27
525.03
501.26
444.24
371.82
200.42
53.89
177.25
98.90
58.49
81.53
83.94
74.79
96.71
209.84
190.93
414.56
518.31
493.77
571.18
520.64
512.34
502.99
494.83
494.45
525.11
501.36
460.93
387.53
212.47
46.34
177.33
97.73
60.40
81.88
82.40
76.50
96.87
209.89
191.07
414.69
518.62
494.22
571.42
521.75
514.20
504.81
496.56
496.58
527.20
502.98
462.81
389.62
214.35
6.34
163.45
92.23
61.11
76.44
84.20
123.41
134.78
252.10
215.61
416.87
521.89
498.13
575.86
528.84
523.04
513.07
503.99
502.85
532.84
508.06
451.70
378.40
205.62
12.74
155.96
87.94
76.10
74.25
82.11
96.13
89.83
166.55
148.77
329.29
408.37
506.02
584.99
539.60
534.86
528.48
524.41
523.44
550.04
474.96
339.72
313.15
183.08
20.26
108.11
48.21
77.75
68.70
81.20
101.87
85.89
173.61
156.59
244.83
177.99
297.26
374.18
416.24
411.50
402.23
394.37
394.34
331.17
333.17
284.10
262.98
227.26
19.48
141.03
95.48
101.64
95.42
80.11
116.44
110.66
219.99
215.33
437.36
546.91
522.61
596.51
547.57
538.06
524.24
511.71
507.87
536.35
510.65
469.77
394.89
217.65
12.20
123.47
78.39
76.69
75.89
65.97
130.45
130.38
243.93
217.58
418.04
522.03
497.90
574.14
524.29
517.17
507.86
499.65
499.94
530.03
504.81
447.82
375.71
203.76
9.15
113.24
90.31
61.69
76.68
82.67
80.33
97.69
205.67
199.20
422.25
528.10
502.66
576.24
523.64
515.63
505.48
496.50
496.12
526.48
502.14
461.00
387.87
212.65
35.60
150.16
92.23
83.63
63.72
78.44
99.52
78.73
198.36
190.95
414.54
518.06
493.59
571.06
520.23
511.87
502.36
493.83
493.86
524.61
501.02
460.32
386.89
212.09
55.37
177.50
98.77
58.31
81.32
83.75
114.46
137.47
240.84
213.61
414.67
518.20
493.56
571.04
520.38
511.81
502.26
493.71
493.72
524.49
500.98
443.82
371.51
200.29
53.74
177.26
93.50
52.89
76.00
78.35
69.19
91.13
153.11
144.47
324.00
399.26
493.69
571.12
520.44
512.05
502.71
494.53
494.47
525.07
456.13
320.64
294.94
166.22
32.85
146.58
88.36
76.62
61.54
74.98
94.28
78.56
154.26
146.20
234.95
168.14
290.44
369.45
411.37
405.82
396.38
388.15
388.43
316.05
329.71
281.33
259.42
223.05
14.02
171.29
102.42
72.44
88.73
93.57
92.86
103.11
162.57
154.73
241.79
174.28
293.61
371.32
411.60
406.51
396.88
388.36
388.05
314.26
326.42
275.80
252.50
215.14
39.22
154.13
94.95
90.14
68.14
79.68
141.96
121.57
240.83
214.94
415.35
518.77
494.53
571.51
520.51
512.94
503.30
494.67
494.57
514.91
501.27
443.84
371.78
200.44
46.41
176.58
97.49
60.40
82.05
82.59
76.76
97.36
199.76
191.30
414.82
518.89
494.40
572.04
522.77
515.86
507.37
500.21
501.19
521.03
506.51
466.02
392.44
216.58
12.05
103.07
90.33
81.30
68.94
88.26
98.87
85.35
208.57
203.10
428.67
539.63
518.34
595.57
552.12
542.21
526.47
515.28
512.95
530.53
513.02
471.96
397.67
221.40
17.60
128.12
96.31
71.88
91.42
86.45
130.34
153.72
244.62
230.18
429.07
536.27
511.80
587.80
539.08
532.74
524.17
517.60
521.34
549.12
541.73
502.14
431.16
254.68
69.35
152.49
72.53
47.75
40.87
49.50
111.64
101.12
165.68
168.80
345.11
422.04
515.70
590.90
544.10
541.59
535.62
530.54
527.27
540.58
471.86
334.61
306.98
175.49
10.98
100.03
37.18
63.62
69.14
77.91
94.96
86.17
151.86
155.66
244.92
179.16
298.71
375.74
420.18
417.03
409.66
403.71
404.15
328.62
340.80
288.23
263.27
226.70
17.23
105.68
34.98
46.34
73.47
92.38
89.34
101.41
198.85
201.58
425.78
534.89
513.75
594.44
559.18
558.34
548.97
540.81
539.96
559.03
540.59
507.10
431.71
252.85
55.93
143.06
70.74
50.62
46.88
43.09
108.68
150.28
247.61
227.38
423.81
526.08
500.23
575.27
524.24
517.30
507.01
498.37
497.98
518.04
503.95
446.30
374.04
201.82
11.66
163.48
77.10
73.47
79.99
69.04
93.54
94.86
189.23
190.96
414.55
518.26
494.44
572.08
522.22
514.48
505.57
497.36
497.42
517.67
503.67
462.74
389.10
213.76
4.76
143.72
86.36
75.62
60.38
77.86
101.91
80.72
189.27
192.33
416.91
522.63
500.32
579.63
534.31
529.49
516.42
508.08
509.91
531.61
517.67
481.52
410.93
236.03
35.40
124.81
51.27
34.78
99.92
109.13
147.20
161.31
257.02
241.82
439.57
548.43
520.67
591.86
542.01
533.40
525.80
518.61
518.05
534.16
516.59
461.33
387.32
208.99
12.69
98.52
48.19
71.92
61.15
63.46
93.72
84.08
142.65
144.21
323.83
398.31
493.36
571.14
520.77
513.32
504.31
495.66
495.27
504.68
455.75
319.48
293.81
165.56
29.59
144.31
86.55
77.69
57.89
72.89
93.98
73.26
141.90
144.65
233.48
164.58
284.21
363.25
403.93
397.15
387.21
378.99
379.28
296.34
321.60
272.35
250.31
214.30
4.34
162.86
92.64
69.91
95.55
87.75
93.81
113.14
185.69
198.11
420.23
524.17
497.85
572.78
520.78
513.55
503.87
495.16
494.97
504.96
501.43
460.22
387.19
212.22
40.97
177.44
96.88
58.29
82.96
81.90
114.18
138.81
220.13
213.32
414.54
517.82
493.31
570.96
520.40
511.76
502.40
494.44
494.26
503.90
500.82
443.53
371.25
200.20
40.51
151.78
92.31
82.69
65.82
76.96
99.12
81.24
178.10
191.28
414.68
518.66
495.18
573.03
523.88
516.12
507.66
500.05
498.48
507.36
503.73
463.15
389.43
213.79
5.23
157.98
86.43
57.25
78.05
79.48
82.94
96.88
179.41
192.04
416.48
521.46
498.42
575.01
525.95
518.49
509.10
500.93
500.96
512.15
512.39
476.22
404.78
231.54
30.16
122.21
48.83
55.43
92.92
92.86
164.95
155.22
247.54
243.44
441.01
547.74
522.76
598.46
554.92
554.50
548.42
537.72
529.28
531.43
524.80
472.09
398.77
224.54
34.56
124.19
45.34
29.42
31.83
34.95
74.09
96.33
165.73
181.73
359.25
444.34
542.38
628.23
601.43
611.60
610.89
607.34
610.61
618.91
553.59
422.98
386.78
242.57
82.99
166.41
101.01
77.95
75.09
90.31
87.27
226.20
223.07
292.11
233.14
347.48
408.67
448.70
449.09
443.08
429.87
428.09
331.38
326.27
307.16
286.01
247.11
39.70
119.81
51.97
43.26
44.41
43.63
58.19
70.35
241.93
236.54
447.70
575.73
584.73
692.86
695.74
710.36
705.95
707.43
704.04
693.56
644.47
643.59
546.28
332.95
118.89
196.78
141.07
110.97
103.00
91.91
146.66
141.80
321.31
294.88
476.97
591.82
576.77
651.91
616.81
615.75
610.09
599.08
591.98
580.70
536.34
508.97
429.86
251.98
66.11
150.50
78.87
57.48
53.66
50.74
65.60
62.93
245.40
230.30
450.61
565.14
553.92
639.95
621.22
644.06
651.99
661.75
666.87
644.53
580.23
567.13
475.32
284.65
86.78
173.03
113.92
94.49
93.51
93.08
111.25
112.35
297.86
286.71
512.62
651.98
662.15
730.21
726.76
740.28
724.06
718.25
714.20
706.23
660.07
659.21
572.80
348.11
127.78
200.55
147.06
120.92
118.58
117.51
181.89
180.81
372.98
355.94
551.51
676.36
665.88
722.64
708.93
718.69
703.14
690.71
674.14
659.43
613.16
592.05
514.93
304.56
102.57
171.67
99.79
73.16
73.42
72.25
86.83
82.96
220.36
196.99
368.00
451.76
548.12
619.67
564.36
556.86
545.30
535.18
533.91
527.04
437.76
336.12
305.65
173.13
6.67
93.44
16.64
1.34
13.91
41.98
46.88
84.05
172.85
156.58
246.56
175.51
293.29
371.38
413.62
409.68
399.93
387.31
390.39
303.76
300.07
300.87
283.43
248.13
46.97
138.07
69.20
56.29
56.37
58.33
77.86
79.39
260.48
247.52
462.77
568.39
544.28
612.17
565.72
557.28
541.76
531.29
528.63
523.86
483.50
484.12
408.05
228.24
22.83
111.48
47.49
82.70
74.26
95.74
147.74
132.65
262.33
220.57
418.41
522.70
499.90
576.25
526.98
523.42
518.79
513.62
515.39
513.85
474.37
454.34
379.28
206.77
12.19
100.46
24.90
6.83
49.29
69.00
89.70
99.83
221.33
205.18
429.39
535.85
513.46
595.30
555.89
556.46
549.99
544.88
544.07
541.66
505.50
502.79
414.75
230.16
24.88
113.92
43.87
29.82
34.52
38.42
57.03
58.23
246.88
233.44
457.23
576.65
559.55
642.68
608.35
597.08
574.90
553.01
535.59
521.31
475.23
469.80
393.02
216.60
8.05
96.25
48.59
70.17
71.11
63.10
127.07
126.90
241.82
214.73
415.60
519.11
494.99
572.26
521.84
514.08
504.65
496.14
496.18
496.14
461.96
446.30
373.98
202.16
5.66
136.76
88.36
66.98
57.91
71.66
90.83
80.23
155.33
147.18
326.53
403.28
498.67
574.85
525.63
518.75
509.52
502.08
503.09
502.34
420.84
325.75
299.93
170.57
8.77
100.72
53.45
64.76
78.30
78.41
89.16
99.19
158.80
150.54
239.35
170.68
290.68
367.90
410.06
408.55
403.49
404.31
408.65
309.87
296.09
283.78
254.95
215.58
0.92
133.10
80.68
70.97
66.12
79.26
94.94
84.69
198.86
191.24
414.77
518.44
494.50
572.15
522.58
516.23
508.15
502.43
504.86
504.74
467.09
464.87
390.17
214.24
5.81
134.86
72.60
76.51
71.04
60.22
140.65
134.93
241.45
214.81
416.17
521.43
501.89
584.88
539.86
524.01
510.93
505.63
507.98
505.73
470.19
452.03
378.27
206.61
11.40
99.23
22.99
4.61
53.93
65.06
76.03
93.36
201.76
193.31
417.61
522.46
498.45
575.09
525.76
517.79
508.91
501.10
501.15
502.40
469.23
471.79
395.31
217.13
12.94
112.08
41.96
56.62
99.82
93.57
105.26
118.38
219.25
212.45
433.12
540.34
515.14
591.27
543.16
536.79
527.48
520.31
520.81
519.55
482.91
486.66
409.67
227.61
20.19
138.75
92.60
95.07
101.21
81.99
153.25
158.17
261.07
236.52
434.70
542.49
518.69
595.85
549.92
545.04
535.88
528.54
529.48
530.22
492.18
481.67
408.82
233.19
45.35
134.17
60.16
37.05
35.96
79.72
118.60
108.67
185.46
179.00
354.65
435.97
529.68
603.19
555.97
548.70
537.77
528.19
527.27
526.73
445.27
343.91
326.47
194.11
34.81
124.62
52.52
36.79
38.01
74.35
124.39
109.70
178.80
184.80
269.54
208.25
328.49
403.28
448.73
446.70
438.98
431.28
429.59
335.38
323.25
309.63
295.94
256.49
54.16
140.25
66.53
52.99
49.23
47.14
91.66
112.50
221.72
225.30
444.72
553.75
529.02
602.59
555.86
551.76
543.62
536.10
536.48
535.96
496.87
490.86
423.73
243.90
44.24
131.79
57.37
40.51
39.63
68.54
168.47
153.61
253.06
236.67
434.33
541.57
515.53
588.13
540.98
535.42
524.61
515.48
514.57
512.85
476.27
454.83
394.05
220.24
29.44
118.03
41.73
23.18
66.02
82.80
91.84
101.50
196.83
202.02
428.56
537.50
514.31
586.06
535.63
533.35
526.68
520.45
522.36
521.27
482.84
471.57
404.02
226.15
22.95
111.12
39.68
20.78
19.86
19.43
35.79
34.46
201.86
202.46
426.99
535.04
511.53
586.23
536.92
527.50
516.25
505.83
505.94
504.95
468.41
457.84
394.17
221.22
24.31
116.08
43.40
40.50
86.27
77.05
150.74
143.72
241.84
226.16
424.66
530.37
506.11
581.49
530.42
523.03
512.60
503.73
506.60
507.80
470.55
443.97
380.72
206.03
12.40
99.93
33.93
50.26
58.37
71.65
77.53
77.27
143.42
146.45
326.81
402.83
498.64
574.96
525.43
518.28
509.46
501.38
501.89
502.21
421.13
315.04
299.37
170.54
3.20
91.40
47.64
64.94
67.42
58.67
83.44
86.92
144.83
147.71
238.25
172.07
296.62
377.51
424.97
423.53
418.34
414.22
415.22
318.45
312.56
293.50
277.07
234.82
22.29
108.72
34.10
19.37
16.59
15.91
33.57
35.04
207.66
217.90
449.75
572.55
562.64
644.99
616.55
618.41
613.70
606.83
606.95
605.77
562.04
562.56
496.99
300.95
98.51
180.13
118.14
95.25
93.94
94.87
157.13
156.41
321.40
299.67
469.58
578.33
552.54
621.04
571.97
565.58
553.75
540.61
533.19
522.14
478.29
447.72
380.40
205.43
10.65
97.72
19.98
32.35
54.82
75.47
85.12
93.16
182.58
194.95
418.34
522.63
498.59
575.16
525.80
519.21
510.60
502.59
502.71
501.96
466.23
455.79
392.37
216.53
8.33
96.98
46.91
56.36
72.21
71.60
79.76
89.17
180.16
193.30
417.53
522.35
498.92
575.31
526.10
519.78
511.23
504.70
507.18
503.84
467.23
456.91
393.02
217.75
15.18
104.20
29.23
41.39
78.91
89.23
121.43
145.91
229.73
225.99
427.81
536.72
515.09
591.59
545.33
539.34
528.96
523.29
531.25
532.71
494.36
472.54
402.15
221.22
27.03
116.94
60.99
48.16
51.97
54.74
73.73
76.57
188.64
210.55
388.16
478.24
577.25
652.44
610.09
608.71
600.16
589.20
588.52
586.82
494.72
386.77
373.05
233.03
73.83
156.15
91.50
71.43
68.97
66.36
75.04
59.50
163.48
178.10
268.84
207.72
330.37
406.67
457.35
459.01
451.61
439.30
441.17
342.74
333.60
302.12
292.74
251.17
41.97
125.82
54.83
42.62
43.03
42.98
58.63
56.69
211.85
229.25
456.92
585.28
578.94
661.61
626.74
617.30
598.10
572.33
554.54
546.57
495.73
471.84
410.24
223.11
11.06
97.96
18.68
46.47
64.63
59.98
134.45
128.78
223.03
217.64
418.90
523.71
500.28
576.71
531.46
525.79
